C Year  Mo  Dy  Hr  Min Second     Azi[deg]   Elv[deg]       Rho[m]        x[m]              y[m]             z[m]          姿态yaw pitch roll
  2020  11  28  12  00  00.000000  179.9984   13.4300        84688.246     41967380.822      3963497.068      1317690.371
  2020  11  28  12  00  01.000000  179.9984   13.4296        84691.176     41967091.383      3966557.229      1317702.250
  2020  11  28  12  00  02.000000  179.9984   13.4292        84694.105     41966801.721      3969617.369      1317714.122
  2020  11  28  12  00  03.000000  179.9984   13.4288        84697.035     41966511.836      3972677.487      1317725.987
  2020  11  28  12  00  04.000000  179.9984   13.4284        84699.965     41966221.717      3975737.708      1317737.845
  2020  11  28  12  00  05.000000  179.9984   13.4280        84702.894     41965931.386      3978797.785      1317749.695
  2020  11  28  12  00  06.000000  179.9984   13.4276        84705.824     41965640.833      3981857.840      1317761.539
  2020  11  28  12  00  07.000000  179.9984   13.4272        84708.754     41965350.056      3984917.874      1317773.376
  2020  11  28  12  00  08.000000  179.9984   13.4268        84711.683     41965059.056      3987977.887      1317785.205
  2020  11  28  12  00  09.000000  179.9984   13.4264        84714.613     41964767.834      3991037.879      1317797.028
  2020  11  28  12  00  10.000000  179.9984   13.4260        84717.542     41964476.388      3994097.849      1317808.844
  2020  11  28  12  00  11.000000  179.9984   13.4256        84720.472     41964184.719      3997157.799      1317820.652
  2020  11  28  12  00  12.000000  179.9984   13.4252        84723.402     41963892.816      4000217.850      1317832.455
  2020  11  28  12  00  13.000000  179.9984   13.4248        84726.331     41963600.702      4003277.757      1317844.249
  2020  11  28  12  00  14.000000  179.9984   13.4244        84729.261     41963308.364      4006337.642      1317856.037
  2020  11  28  12  00  15.000000  179.9984   13.4240        84732.190     41963015.804      4009397.507      1317867.818
  2020  11  28  12  00  16.000000  179.9984   13.4236        84735.120     41962723.020      4012457.350      1317879.591
  2020  11  28  12  00  17.000000  179.9984   13.4232        84738.050     41962430.014      4015517.171      1317891.358
  2020  11  28  12  00  18.000000  179.9984   13.4228        84740.979     41962136.785      4018576.972      1317903.118
  2020  11  28  12  00  19.000000  179.9984   13.4224        84743.909     41961843.320      4021636.874      1317914.871
  2020  11  28  12  00  20.000000  179.9984   13.4220        84746.838     41961549.645      4024696.631      1317926.616
  2020  11  28  12  00  21.000000  179.9984   13.4216        84749.768     41961255.747      4027756.367      1317938.355
  2020  11  28  12  00  22.000000  179.9984   13.4212        84752.697     41960961.626      4030816.082      1317950.087
  2020  11  28  12  00  23.000000  179.9984   13.4208        84755.627     41960667.281      4033875.776      1317961.811
  2020  11  28  12  00  24.000000  179.9984   13.4204        84758.556     41960372.714      4036935.448      1317973.529
  2020  11  28  12  00  25.000000  179.9984   13.4200        84761.486     41960077.924      4039995.098      1317985.240
  2020  11  28  12  00  26.000000  179.9984   13.4196        84764.415     41959782.899      4043054.850      1317996.944
  2020  11  28  12  00  27.000000  179.9984   13.4192        84767.345     41959487.663      4046114.458      1318008.640
  2020  11  28  12  00  28.000000  179.9984   13.4188        84770.274     41959192.204      4049174.044      1318020.330
  2020  11  28  12  00  29.000000  179.9984   13.4184        84773.204     41958896.523      4052233.609      1318032.013
  2020  11  28  12  00  30.000000  179.9984   13.4180        84776.133     41958600.618      4055293.152      1318043.688
  2020  11  28  12  00  31.000000  179.9984   13.4176        84779.063     41958304.490      4058352.673      1318055.357
  2020  11  28  12  00  32.000000  179.9984   13.4172        84781.992     41958008.139      4061412.173      1318067.019
  2020  11  28  12  00  33.000000  179.9984   13.4168        84784.921     41957711.566      4064471.651      1318078.673
  2020  11  28  12  00  34.000000  179.9984   13.4164        84787.851     41957414.757      4067531.231      1318090.321
  2020  11  28  12  00  35.000000  179.9984   13.4160        84790.780     41957117.738      4070590.666      1318101.962
  2020  11  28  12  00  36.000000  179.9984   13.4156        84793.710     41956820.495      4073650.080      1318113.596
  2020  11  28  12  00  37.000000  179.9984   13.4152        84796.639     41956523.030      4076709.472      1318125.222
  2020  11  28  12  00  38.000000  179.9984   13.4148        84799.568     41956225.341      4079768.842      1318136.842
  2020  11  28  12  00  39.000000  179.9984   13.4144        84802.498     41955927.430      4082828.190      1318148.455
  2020  11  28  12  00  40.000000  179.9984   13.4140        84805.427     41955629.296      4085887.517      1318160.060
  2020  11  28  12  00  41.000000  179.9984   13.4136        84808.357     41955330.927      4088946.946      1318171.659
  2020  11  28  12  00  42.000000  179.9984   13.4132        84811.286     41955032.347      4092006.229      1318183.251
  2020  11  28  12  00  43.000000  179.9984   13.4128        84814.215     41954733.544      4095065.491      1318194.836
  2020  11  28  12  00  44.000000  179.9984   13.4124        84817.145     41954434.518      4098124.730      1318206.413
  2020  11  28  12  00  45.000000  179.9984   13.4120        84820.074     41954135.269      4101183.949      1318217.984
  2020  11  28  12  00  46.000000  179.9984   13.4116        84823.003     41953835.797      4104243.145      1318229.548
  2020  11  28  12  00  47.000000  179.9984   13.4112        84825.932     41953536.103      4107302.319      1318241.104
  2020  11  28  12  00  48.000000  179.9984   13.4108        84828.862     41953236.185      4110361.472      1318252.654
  2020  11  28  12  00  49.000000  179.9984   13.4104        84831.791     41952936.032      4113420.726      1318264.197
  2020  11  28  12  00  50.000000  179.9984   13.4100        84834.720     41952635.669      4116479.835      1318275.732
  2020  11  28  12  00  51.000000  179.9984   13.4096        84837.650     41952335.083      4119538.922      1318287.261
  2020  11  28  12  00  52.000000  179.9984   13.4092        84840.579     41952034.273      4122597.987      1318298.783
  2020  11  28  12  00  53.000000  179.9984   13.4088        84843.508     41951733.241      4125657.031      1318310.297
  2020  11  28  12  00  54.000000  179.9984   13.4084        84846.437     41951431.986      4128716.052      1318321.805
  2020  11  28  12  00  55.000000  179.9984   13.4080        84849.367     41951130.508      4131775.052      1318333.306
  2020  11  28  12  00  56.000000  179.9984   13.4076        84852.296     41950828.795      4134834.152      1318344.800
  2020  11  28  12  00  57.000000  179.9984   13.4072        84855.225     41950526.872      4137893.108      1318356.286
  2020  11  28  12  00  58.000000  179.9984   13.4068        84858.154     41950224.725      4140952.041      1318367.766
  2020  11  28  12  00  59.000000  179.9984   13.4064        84861.083     41949922.355      4144010.953      1318379.238
  2020  11  28  12  01  00.000000  179.9984   13.4060        84864.013     41949619.763      4147069.842      1318390.704
  2020  11  28  12  01  01.000000  179.9984   13.4056        84866.942     41949316.947      4150128.710      1318402.162
  2020  11  28  12  01  02.000000  179.9984   13.4052        84869.871     41949013.909      4153187.555      1318413.614
  2020  11  28  12  01  03.000000  179.9984   13.4048        84872.800     41948710.648      4156246.379      1318425.059
  2020  11  28  12  01  04.000000  179.9984   13.4044        84875.729     41948407.152      4159305.303      1318436.497
  2020  11  28  12  01  05.000000  179.9984   13.4040        84878.659     41948103.445      4162364.082      1318447.927
  2020  11  28  12  01  06.000000  179.9984   13.4036        84881.588     41947799.515      4165422.839      1318459.351
  2020  11  28  12  01  07.000000  179.9984   13.4032        84884.517     41947495.362      4168481.574      1318470.767
  2020  11  28  12  01  08.000000  179.9984   13.4028        84887.446     41947190.987      4171540.287      1318482.177
  2020  11  28  12  01  09.000000  179.9984   13.4024        84890.375     41946886.388      4174598.978      1318493.579
  2020  11  28  12  01  10.000000  179.9984   13.4020        84893.304     41946581.567      4177657.646      1318504.975
  2020  11  28  12  01  11.000000  179.9984   13.4016        84896.233     41946276.510      4180716.416      1318516.364
  2020  11  28  12  01  12.000000  179.9984   13.4012        84899.162     41945971.243      4183775.040      1318527.746
  2020  11  28  12  01  13.000000  179.9984   13.4008        84902.091     41945665.753      4186833.641      1318539.120
  2020  11  28  12  01  14.000000  179.9984   13.4004        84905.020     41945360.040      4189892.221      1318550.488
  2020  11  28  12  01  15.000000  179.9984   13.4000        84907.949     41945054.105      4192950.778      1318561.848
  2020  11  28  12  01  16.000000  179.9984   13.3996        84910.878     41944747.946      4196009.313      1318573.202
  2020  11  28  12  01  17.000000  179.9984   13.3992        84913.808     41944441.564      4199067.826      1318584.548
  2020  11  28  12  01  18.000000  179.9984   13.3988        84916.737     41944134.948      4202126.440      1318595.888
  2020  11  28  12  01  19.000000  179.9984   13.3984        84919.666     41943828.121      4205184.908      1318607.221
  2020  11  28  12  01  20.000000  179.9984   13.3980        84922.595     41943521.070      4208243.353      1318618.546
  2020  11  28  12  01  21.000000  179.9984   13.3976        84925.524     41943213.797      4211301.777      1318629.865
  2020  11  28  12  01  22.000000  179.9984   13.3972        84928.453     41942906.302      4214360.178      1318641.176
  2020  11  28  12  01  23.000000  179.9984   13.3968        84931.382     41942598.583      4217418.556      1318652.481
  2020  11  28  12  01  24.000000  179.9984   13.3964        84934.311     41942290.641      4220476.913      1318663.778
  2020  11  28  12  01  25.000000  179.9984   13.3960        84937.239     41941982.477      4223535.246      1318675.069
  2020  11  28  12  01  26.000000  179.9984   13.3956        84940.169     41941674.077      4226593.681      1318686.353
  2020  11  28  12  01  27.000000  179.9984   13.3952        84943.097     41941365.467      4229651.970      1318697.629
  2020  11  28  12  01  28.000000  179.9984   13.3948        84946.026     41941056.634      4232710.236      1318708.898
  2020  11  28  12  01  29.000000  179.9984   13.3944        84948.955     41940747.578      4235768.480      1318720.161
  2020  11  28  12  01  30.000000  179.9984   13.3940        84951.884     41940438.300      4238826.702      1318731.416
  2020  11  28  12  01  31.000000  179.9984   13.3936        84954.813     41940128.798      4241884.900      1318742.665
  2020  11  28  12  01  32.000000  179.9984   13.3932        84957.742     41939819.074      4244943.077      1318753.906
  2020  11  28  12  01  33.000000  179.9984   13.3928        84960.671     41939509.114      4248001.354      1318765.141
  2020  11  28  12  01  34.000000  179.9984   13.3924        84963.600     41939198.944      4251059.485      1318776.369
  2020  11  28  12  01  35.000000  179.9984   13.3920        84966.529     41938888.551      4254117.593      1318787.589
  2020  11  28  12  01  36.000000  179.9984   13.3916        84969.458     41938577.936      4257175.680      1318798.802
  2020  11  28  12  01  37.000000  179.9984   13.3912        84972.386     41938267.097      4260233.743      1318810.009
  2020  11  28  12  01  38.000000  179.9984   13.3908        84975.315     41937956.036      4263291.784      1318821.208
  2020  11  28  12  01  39.000000  179.9984   13.3904        84978.244     41937644.751      4266349.802      1318832.401
  2020  11  28  12  01  40.000000  179.9984   13.3900        84981.173     41937333.244      4269407.797      1318843.586
  2020  11  28  12  01  41.000000  179.9984   13.3896        84984.102     41937021.502      4272465.893      1318854.765
  2020  11  28  12  01  42.000000  179.9984   13.3892        84987.031     41936709.549      4275523.843      1318865.936
  2020  11  28  12  01  43.000000  179.9984   13.3888        84989.959     41936397.374      4278581.771      1318877.101
  2020  11  28  12  01  44.000000  179.9984   13.3883        84992.888     41936084.975      4281639.675      1318888.258
  2020  11  28  12  01  45.000000  179.9984   13.3879        84995.817     41935772.354      4284697.557      1318899.408
  2020  11  28  12  01  46.000000  179.9984   13.3875        84998.746     41935459.510      4287755.416      1318910.552
  2020  11  28  12  01  47.000000  179.9984   13.3871        85001.674     41935146.443      4290813.252      1318921.688
  2020  11  28  12  01  48.000000  179.9984   13.3867        85004.603     41934833.141      4293871.189      1318932.818
  2020  11  28  12  01  49.000000  179.9984   13.3863        85007.532     41934519.628      4296928.980      1318943.940
  2020  11  28  12  01  50.000000  179.9984   13.3859        85010.461     41934205.893      4299986.748      1318955.056
  2020  11  28  12  01  51.000000  179.9984   13.3855        85013.389     41933891.935      4303044.493      1318966.164
  2020  11  28  12  01  52.000000  179.9984   13.3851        85016.318     41933577.754      4306102.215      1318977.265
  2020  11  28  12  01  53.000000  179.9984   13.3847        85019.247     41933263.350      4309159.914      1318988.360
  2020  11  28  12  01  54.000000  179.9984   13.3843        85022.175     41932948.724      4312217.590      1318999.447
  2020  11  28  12  01  55.000000  179.9984   13.3839        85025.104     41932633.862      4315275.367      1319010.528
  2020  11  28  12  01  56.000000  179.9984   13.3835        85028.033     41932318.789      4318332.998      1319021.601
  2020  11  28  12  01  57.000000  179.9984   13.3831        85030.961     41932003.494      4321390.605      1319032.667
  2020  11  28  12  01  58.000000  179.9984   13.3827        85033.890     41931687.977      4324448.190      1319043.727
  2020  11  28  12  01  59.000000  179.9984   13.3823        85036.819     41931372.236      4327505.751      1319054.779
  2020  11  28  12  02  00.000000  179.9984   13.3819        85039.747     41931056.273      4330563.290      1319065.824
  2020  11  28  12  02  01.000000  179.9984   13.3815        85042.676     41930740.086      4333620.806      1319076.862
  2020  11  28  12  02  02.000000  179.9984   13.3811        85045.605     41930423.677      4336678.298      1319087.894
  2020  11  28  12  02  03.000000  179.9984   13.3807        85048.533     41930107.033      4339735.891      1319098.918
  2020  11  28  12  02  04.000000  179.9984   13.3803        85051.462     41929790.178      4342793.338      1319109.936
  2020  11  28  12  02  05.000000  179.9984   13.3799        85054.390     41929473.101      4345850.761      1319120.946
  2020  11  28  12  02  06.000000  179.9984   13.3795        85057.319     41929155.801      4348908.161      1319131.949
  2020  11  28  12  02  07.000000  179.9984   13.3791        85060.248     41928838.278      4351965.539      1319142.945
  2020  11  28  12  02  08.000000  179.9984   13.3787        85063.176     41928520.532      4355022.893      1319153.935
  2020  11  28  12  02  09.000000  179.9984   13.3783        85066.105     41928202.564      4358080.224      1319164.917
  2020  11  28  12  02  10.000000  179.9984   13.3779        85069.033     41927884.360      4361137.655      1319175.892
  2020  11  28  12  02  11.000000  179.9984   13.3775        85071.962     41927565.945      4364194.939      1319186.861
  2020  11  28  12  02  12.000000  179.9984   13.3771        85074.890     41927247.309      4367252.201      1319197.822
  2020  11  28  12  02  13.000000  179.9984   13.3766        85077.819     41926928.449      4370309.439      1319208.776
  2020  11  28  12  02  14.000000  179.9984   13.3762        85080.747     41926609.367      4373366.654      1319219.723
  2020  11  28  12  02  15.000000  179.9984   13.3758        85083.676     41926290.061      4376423.846      1319230.663
  2020  11  28  12  02  16.000000  179.9984   13.3754        85086.604     41925970.533      4379481.014      1319241.596
  2020  11  28  12  02  17.000000  179.9984   13.3750        85089.533     41925650.783      4382538.160      1319252.523
  2020  11  28  12  02  18.000000  179.9984   13.3746        85092.461     41925330.796      4385595.405      1319263.442
  2020  11  28  12  02  19.000000  179.9984   13.3742        85095.390     41925010.600      4388652.503      1319274.354
  2020  11  28  12  02  20.000000  179.9984   13.3738        85098.318     41924690.181      4391709.579      1319285.259
  2020  11  28  12  02  21.000000  179.9984   13.3734        85101.246     41924369.539      4394766.631      1319296.158
  2020  11  28  12  02  22.000000  179.9984   13.3730        85104.175     41924048.675      4397823.660      1319307.049
  2020  11  28  12  02  23.000000  179.9984   13.3726        85107.103     41923727.587      4400880.665      1319317.933
  2020  11  28  12  02  24.000000  179.9984   13.3722        85110.032     41923406.277      4403937.647      1319328.810
  2020  11  28  12  02  25.000000  179.9984   13.3718        85112.960     41923084.732      4406994.728      1319339.680
  2020  11  28  12  02  26.000000  179.9984   13.3714        85115.888     41922762.976      4410051.664      1319350.543
  2020  11  28  12  02  27.000000  179.9984   13.3710        85118.817     41922440.998      4413108.575      1319361.399
  2020  11  28  12  02  28.000000  179.9984   13.3706        85121.745     41922118.797      4416165.464      1319372.249
  2020  11  28  12  02  29.000000  179.9984   13.3702        85124.673     41921796.373      4419222.328      1319383.091
  2020  11  28  12  02  30.000000  179.9984   13.3698        85127.602     41921473.726      4422279.170      1319393.926
  2020  11  28  12  02  31.000000  179.9984   13.3694        85130.530     41921150.857      4425335.987      1319404.754
  2020  11  28  12  02  32.000000  179.9984   13.3690        85133.458     41920827.765      4428392.782      1319415.575
  2020  11  28  12  02  33.000000  179.9984   13.3685        85136.387     41920504.437      4431449.675      1319426.389
  2020  11  28  12  02  34.000000  179.9984   13.3681        85139.315     41920180.899      4434506.423      1319437.196
  2020  11  28  12  02  35.000000  179.9984   13.3677        85142.243     41919857.139      4437563.146      1319447.996
  2020  11  28  12  02  36.000000  179.9984   13.3673        85145.172     41919533.156      4440619.846      1319458.789
  2020  11  28  12  02  37.000000  179.9984   13.3669        85148.100     41919208.950      4443676.523      1319469.575
  2020  11  28  12  02  38.000000  179.9984   13.3665        85151.028     41918884.522      4446733.176      1319480.354
  2020  11  28  12  02  39.000000  179.9984   13.3661        85153.956     41918559.870      4449789.805      1319491.126
  2020  11  28  12  02  40.000000  179.9984   13.3657        85156.885     41918234.983      4452846.534      1319501.891
  2020  11  28  12  02  41.000000  179.9984   13.3653        85159.813     41917909.887      4455903.116      1319512.649
  2020  11  28  12  02  42.000000  179.9984   13.3649        85162.741     41917584.567      4458959.674      1319523.400
  2020  11  28  12  02  43.000000  179.9984   13.3645        85165.669     41917259.025      4462016.208      1319534.144
  2020  11  28  12  02  44.000000  179.9984   13.3641        85168.597     41916933.260      4465072.719      1319544.881
  2020  11  28  12  02  45.000000  179.9984   13.3637        85171.526     41916607.272      4468129.206      1319555.611
  2020  11  28  12  02  46.000000  179.9984   13.3633        85174.454     41916281.062      4471185.670      1319566.334
  2020  11  28  12  02  47.000000  179.9984   13.3629        85177.382     41915954.616      4474242.232      1319577.050
  2020  11  28  12  02  48.000000  179.9984   13.3625        85180.310     41915627.960      4477298.648      1319587.759
  2020  11  28  12  02  49.000000  179.9984   13.3621        85183.238     41915301.082      4480355.040      1319598.461
  2020  11  28  12  02  50.000000  179.9984   13.3616        85186.166     41914973.980      4483411.409      1319609.156
  2020  11  28  12  02  51.000000  179.9984   13.3612        85189.094     41914646.656      4486467.753      1319619.844
  2020  11  28  12  02  52.000000  179.9984   13.3608        85192.022     41914319.110      4489524.074      1319630.525
  2020  11  28  12  02  53.000000  179.9984   13.3604        85194.951     41913991.340      4492580.370      1319641.198
  2020  11  28  12  02  54.000000  179.9984   13.3600        85197.879     41913663.348      4495636.643      1319651.865
  2020  11  28  12  02  55.000000  179.9984   13.3596        85200.807     41913335.120      4498693.015      1319662.525
  2020  11  28  12  02  56.000000  179.9984   13.3592        85203.735     41913006.683      4501749.240      1319673.178
  2020  11  28  12  02  57.000000  179.9984   13.3588        85206.663     41912678.023      4504805.441      1319683.824
  2020  11  28  12  02  58.000000  179.9984   13.3584        85209.591     41912349.140      4507861.619      1319694.463
  2020  11  28  12  02  59.000000  179.9984   13.3580        85212.519     41912020.034      4510917.772      1319705.095